wavelength, flux, error 
380.000,  0.426,  0.021 
380.100,  0.605,  0.030 
380.200,  0.583,  0.029 
380.300,  0.732,  0.037 
380.400,  0.698,  0.035 
380.500,  0.730,  0.037 
380.600,  0.754,  0.038 
380.700,  0.565,  0.028 
380.800,  0.811,  0.041 
380.900,  0.792,  0.040 
381.000,  0.925,  0.046 
381.100,  0.767,  0.038 
381.200,  0.886,  0.044 
381.300,  0.790,  0.040 
381.400,  0.785,  0.039 
381.500,  0.847,  0.042 
381.600,  0.688,  0.034 
381.700,  0.909,  0.045 
381.800,  0.800,  0.040 
381.900,  0.919,  0.046 
382.000,  0.780,  0.039 
382.100,  0.756,  0.038 
382.200,  0.782,  0.039 
382.300,  0.859,  0.043 
382.400,  0.636,  0.032 
382.500,  0.699,  0.035 
382.600,  0.663,  0.033 
382.700,  0.724,  0.036 
382.800,  0.648,  0.032 
382.900,  0.547,  0.027 
383.000,  0.604,  0.030 
383.100,  0.642,  0.032 
383.200,  0.375,  0.019 
383.300,  0.427,  0.021 
383.400,  0.369,  0.018 
383.500,  0.280,  0.014 
383.600,  0.350,  0.017 
383.700,  0.475,  0.024 
383.800,  0.335,  0.017 
383.900,  0.537,  0.027 
384.000,  0.613,  0.031 
384.100,  0.548,  0.027 
384.200,  0.699,  0.035 
384.300,  0.614,  0.031 
384.400,  0.692,  0.035 
384.500,  0.707,  0.035 
384.600,  0.718,  0.036 
384.700,  0.793,  0.040 
384.800,  0.839,  0.042 
384.900,  0.806,  0.040 
385.000,  0.722,  0.036 
385.100,  0.832,  0.042 
385.200,  0.826,  0.041 
385.300,  0.916,  0.046 
385.400,  0.922,  0.046 
385.500,  0.842,  0.042 
385.600,  0.666,  0.033 
385.700,  0.903,  0.045 
385.800,  0.803,  0.040 
385.900,  0.735,  0.037 
386.000,  0.748,  0.037 
386.100,  0.807,  0.040 
386.200,  0.942,  0.047 
386.300,  0.760,  0.038 
386.400,  0.749,  0.037 
386.500,  0.884,  0.044 
386.600,  0.805,  0.040 
386.700,  0.709,  0.035 
386.800,  0.822,  0.041 
386.900,  0.869,  0.043 
387.000,  0.712,  0.036 
387.100,  0.865,  0.043 
387.200,  0.774,  0.039 
387.300,  0.654,  0.033 
387.400,  0.786,  0.039 
387.500,  0.738,  0.037 
387.600,  0.735,  0.037 
387.700,  0.779,  0.039 
387.800,  0.480,  0.024 
387.900,  0.550,  0.027 
388.000,  0.755,  0.038 
388.100,  0.766,  0.038 
388.200,  0.667,  0.033 
388.300,  0.631,  0.032 
388.400,  0.597,  0.030 
388.500,  0.556,  0.028 
388.600,  0.433,  0.022 
388.700,  0.471,  0.024 
388.800,  0.359,  0.018 
388.900,  0.252,  0.013 
389.000,  0.349,  0.017 
389.100,  0.416,  0.021 
389.200,  0.534,  0.027 
389.300,  0.558,  0.028 
389.400,  0.512,  0.026 
389.500,  0.617,  0.031 
389.600,  0.561,  0.028 
389.700,  0.737,  0.037 
389.800,  0.592,  0.030 
389.900,  0.612,  0.031 
390.000,  0.638,  0.032 
390.100,  0.788,  0.039 
390.200,  0.758,  0.038 
390.300,  0.703,  0.035 
390.400,  0.648,  0.032 
390.500,  0.720,  0.036 
390.600,  0.707,  0.035 
390.700,  0.709,  0.035 
390.800,  0.861,  0.043 
390.900,  0.839,  0.042 
391.000,  0.860,  0.043 
391.100,  0.876,  0.044 
391.200,  0.881,  0.044 
391.300,  0.857,  0.043 
391.400,  0.725,  0.036 
391.500,  0.909,  0.045 
391.600,  0.799,  0.040 
391.700,  0.815,  0.041 
391.800,  0.811,  0.041 
391.900,  0.732,  0.037 
392.000,  0.798,  0.040 
392.100,  0.858,  0.043 
392.200,  0.906,  0.045 
392.300,  0.716,  0.036 
392.400,  0.901,  0.045 
392.500,  0.880,  0.044 
392.600,  0.758,  0.038 
392.700,  0.945,  0.047 
392.800,  0.701,  0.035 
392.900,  0.759,  0.038 
393.000,  0.602,  0.030 
393.100,  0.615,  0.031 
393.200,  0.435,  0.022 
393.300,  0.255,  0.013 
393.400,  0.197,  0.010 
393.500,  0.422,  0.021 
393.600,  0.528,  0.026 
393.700,  0.739,  0.037 
393.800,  0.593,  0.030 
393.900,  0.804,  0.040 
394.000,  0.860,  0.043 
394.100,  0.808,  0.040 
394.200,  0.827,  0.041 
394.300,  0.777,  0.039 
394.400,  0.712,  0.036 
394.500,  0.671,  0.034 
394.600,  0.987,  0.049 
394.700,  0.772,  0.039 
394.800,  0.743,  0.037 
394.900,  0.719,  0.036 
395.000,  0.759,  0.038 
395.100,  0.780,  0.039 
395.200,  0.803,  0.040 
395.300,  0.792,  0.040 
395.400,  0.830,  0.042 
395.500,  0.784,  0.039 
395.600,  0.659,  0.033 
395.700,  0.663,  0.033 
395.800,  0.760,  0.038 
395.900,  0.746,  0.037 
396.000,  0.706,  0.035 
396.100,  0.648,  0.032 
396.200,  0.583,  0.029 
396.300,  0.634,  0.032 
396.400,  0.572,  0.029 
396.500,  0.559,  0.028 
396.600,  0.426,  0.021 
396.700,  0.331,  0.017 
396.800,  0.221,  0.011 
396.900,  0.150,  0.007 
397.000,  0.258,  0.013 
397.100,  0.379,  0.019 
397.200,  0.448,  0.022 
397.300,  0.541,  0.027 
397.400,  0.440,  0.022 
397.500,  0.528,  0.026 
397.600,  0.582,  0.029 
397.700,  0.572,  0.029 
397.800,  0.648,  0.032 
397.900,  0.690,  0.035 
398.000,  0.694,  0.035 
398.100,  0.751,  0.038 
398.200,  0.608,  0.030 
398.300,  0.792,  0.040 
398.400,  0.727,  0.036 
398.500,  0.772,  0.039 
398.600,  0.732,  0.037 
398.700,  0.746,  0.037 
398.800,  0.935,  0.047 
398.900,  0.867,  0.043 
399.000,  0.831,  0.042 
399.100,  0.783,  0.039 
399.200,  0.885,  0.044 
399.300,  0.888,  0.044 
399.400,  0.764,  0.038 
399.500,  0.821,  0.041 
399.600,  0.887,  0.044 
399.700,  0.843,  0.042 
399.800,  0.897,  0.045 
399.900,  0.794,  0.040 
400.000,  0.937,  0.047 
400.100,  0.970,  0.049 
400.200,  0.849,  0.042 
400.300,  0.847,  0.042 
400.400,  0.925,  0.046 
400.500,  0.755,  0.038 
400.600,  0.861,  0.043 
400.700,  0.874,  0.044 
400.800,  0.938,  0.047 
400.900,  0.987,  0.049 
401.000,  0.802,  0.040 
401.100,  0.908,  0.045 
401.200,  0.760,  0.038 
401.300,  0.949,  0.047 
401.400,  0.840,  0.042 
401.500,  0.807,  0.040 
401.600,  0.927,  0.046 
401.700,  0.926,  0.046 
401.800,  0.779,  0.039 
401.900,  0.950,  0.047 
402.000,  0.897,  0.045 
402.100,  0.948,  0.047 
402.200,  0.841,  0.042 
402.300,  0.887,  0.044 
402.400,  0.931,  0.047 
402.500,  0.726,  0.036 
402.600,  0.914,  0.046 
402.700,  0.914,  0.046 
402.800,  0.905,  0.045 
402.900,  0.880,  0.044 
403.000,  0.765,  0.038 
403.100,  0.671,  0.034 
403.200,  0.854,  0.043 
403.300,  0.764,  0.038 
403.400,  0.903,  0.045 
403.500,  0.903,  0.045 
403.600,  0.754,  0.038 
403.700,  0.889,  0.044 
403.800,  1.000,  0.050 
403.900,  0.892,  0.045 
404.000,  0.928,  0.046 
404.100,  0.821,  0.041 
404.200,  0.892,  0.045 
404.300,  0.978,  0.049 
404.400,  0.870,  0.044 
404.500,  0.885,  0.044 
404.600,  0.689,  0.034 
404.700,  0.939,  0.047 
404.800,  1.010,  0.050 
404.900,  0.829,  0.041 
405.000,  0.964,  0.048 
405.100,  0.915,  0.046 
405.200,  0.849,  0.042 
405.300,  0.939,  0.047 
405.400,  0.817,  0.041 
405.500,  0.793,  0.040 
405.600,  0.888,  0.044 
405.700,  0.874,  0.044 
405.800,  0.773,  0.039 
405.900,  0.943,  0.047 
406.000,  0.941,  0.047 
406.100,  0.910,  0.045 
406.200,  0.883,  0.044 
406.300,  0.771,  0.039 
406.400,  0.746,  0.037 
406.500,  0.908,  0.045 
406.600,  0.896,  0.045 
406.700,  0.715,  0.036 
406.800,  0.912,  0.046 
406.900,  0.854,  0.043 
407.000,  0.812,  0.041 
407.100,  0.791,  0.040 
407.200,  0.806,  0.040 
407.300,  0.960,  0.048 
407.400,  0.879,  0.044 
407.500,  0.850,  0.042 
407.600,  0.816,  0.041 
407.700,  0.704,  0.035 
407.800,  0.643,  0.032 
407.900,  0.774,  0.039 
408.000,  0.735,  0.037 
408.100,  0.888,  0.044 
408.200,  0.857,  0.043 
408.300,  0.838,  0.042 
408.400,  0.740,  0.037 
408.500,  0.771,  0.039 
408.600,  0.751,  0.038 
408.700,  0.830,  0.042 
408.800,  0.777,  0.039 
408.900,  0.749,  0.037 
409.000,  0.772,  0.039 
409.100,  0.702,  0.035 
409.200,  0.740,  0.037 
409.300,  0.754,  0.038 
409.400,  0.736,  0.037 
409.500,  0.690,  0.035 
409.600,  0.605,  0.030 
409.700,  0.578,  0.029 
409.800,  0.548,  0.027 
409.900,  0.543,  0.027 
410.000,  0.387,  0.019 
410.100,  0.362,  0.018 
410.200,  0.186,  0.009 
410.300,  0.335,  0.017 
410.400,  0.449,  0.022 
410.500,  0.500,  0.025 
410.600,  0.568,  0.028 
410.700,  0.666,  0.033 
410.800,  0.682,  0.034 
410.900,  0.701,  0.035 
411.000,  0.652,  0.033 
411.100,  0.662,  0.033 
411.200,  0.670,  0.033 
411.300,  0.752,  0.038 
411.400,  0.834,  0.042 
411.500,  0.780,  0.039 
411.600,  0.880,  0.044 
411.700,  0.838,  0.042 
411.800,  0.807,  0.040 
411.900,  0.718,  0.036 
412.000,  0.816,  0.041 
412.100,  0.875,  0.044 
412.200,  0.907,  0.045 
412.300,  0.818,  0.041 
412.400,  0.846,  0.042 
412.500,  0.892,  0.045 
412.600,  0.783,  0.039 
412.700,  0.941,  0.047 
412.800,  0.695,  0.035 
412.900,  0.788,  0.039 
413.000,  0.891,  0.045 
413.100,  0.810,  0.041 
413.200,  0.753,  0.038 
413.300,  0.855,  0.043 
413.400,  0.876,  0.044 
413.500,  0.805,  0.040 
413.600,  0.919,  0.046 
413.700,  0.825,  0.041 
413.800,  0.938,  0.047 
413.900,  0.960,  0.048 
414.000,  0.924,  0.046 
414.100,  0.957,  0.048 
414.200,  0.836,  0.042 
414.300,  0.863,  0.043 
414.400,  0.786,  0.039 
414.500,  0.980,  0.049 
414.600,  0.881,  0.044 
414.700,  0.924,  0.046 
414.800,  0.851,  0.043 
414.900,  0.851,  0.043 
415.000,  0.911,  0.046 
415.100,  0.883,  0.044 
415.200,  0.943,  0.047 
415.300,  0.986,  0.049 
415.400,  0.772,  0.039 
415.500,  0.823,  0.041 
415.600,  0.893,  0.045 
415.700,  0.851,  0.043 
415.800,  0.884,  0.044 
415.900,  0.873,  0.044 
416.000,  0.940,  0.047 
416.100,  0.862,  0.043 
416.200,  0.827,  0.041 
416.300,  0.916,  0.046 
416.400,  0.892,  0.045 
416.500,  0.975,  0.049 
416.600,  0.993,  0.050 
416.700,  0.882,  0.044 
416.800,  0.937,  0.047 
416.900,  0.973,  0.049 
417.000,  0.945,  0.047 
417.100,  0.916,  0.046 
417.200,  0.709,  0.035 
417.300,  0.762,  0.038 
417.400,  0.798,  0.040 
417.500,  0.929,  0.046 
417.600,  0.894,  0.045 
417.700,  0.840,  0.042 
417.800,  0.781,  0.039 
417.900,  0.854,  0.043 
418.000,  0.936,  0.047 
418.100,  0.906,  0.045 
418.200,  0.859,  0.043 
418.300,  0.934,  0.047 
418.400,  0.966,  0.048 
418.500,  0.867,  0.043 
418.600,  0.964,  0.048 
418.700,  0.840,  0.042 
418.800,  0.833,  0.042 
418.900,  0.903,  0.045 
419.000,  0.939,  0.047 
419.100,  0.876,  0.044 
419.200,  0.855,  0.043 
419.300,  0.966,  0.048 
419.400,  0.978,  0.049 
419.500,  0.890,  0.044 
419.600,  0.778,  0.039 
419.700,  0.996,  0.050 
419.800,  0.793,  0.040 
419.900,  0.774,  0.039 
420.000,  0.975,  0.049 
420.100,  0.925,  0.046 
420.200,  0.791,  0.040 
420.300,  0.936,  0.047 
420.400,  0.891,  0.045 
420.500,  0.806,  0.040 
420.600,  0.880,  0.044 
420.700,  0.868,  0.043 
420.800,  0.951,  0.048 
420.900,  0.904,  0.045 
421.000,  0.834,  0.042 
421.100,  0.975,  0.049 
421.200,  0.935,  0.047 
421.300,  0.934,  0.047 
421.400,  0.938,  0.047 
421.500,  0.923,  0.046 
421.600,  0.736,  0.037 
421.700,  0.900,  0.045 
421.800,  0.907,  0.045 
421.900,  0.914,  0.046 
422.000,  0.917,  0.046 
422.100,  0.947,  0.047 
422.200,  0.936,  0.047 
422.300,  0.941,  0.047 
422.400,  0.870,  0.044 
422.500,  0.874,  0.044 
422.600,  0.849,  0.042 
422.700,  0.693,  0.035 
422.800,  0.964,  0.048 
422.900,  0.912,  0.046 
423.000,  0.947,  0.047 
423.100,  0.963,  0.048 
423.200,  0.981,  0.049 
423.300,  0.774,  0.039 
423.400,  0.941,  0.047 
423.500,  0.852,  0.043 
423.600,  0.808,  0.040 
423.700,  0.958,  0.048 
423.800,  0.910,  0.046 
423.900,  0.841,  0.042 
424.000,  0.783,  0.039 
424.100,  0.902,  0.045 
424.200,  0.886,  0.044 
424.300,  0.926,  0.046 
424.400,  0.950,  0.047 
424.500,  0.849,  0.042 
424.600,  0.901,  0.045 
424.700,  0.793,  0.040 
424.800,  0.927,  0.046 
424.900,  0.989,  0.049 
425.000,  0.828,  0.041 
425.100,  0.810,  0.041 
425.200,  0.980,  0.049 
425.300,  0.923,  0.046 
425.400,  0.831,  0.042 
425.500,  0.987,  0.049 
425.600,  1.001,  0.050 
425.700,  1.004,  0.050 
425.800,  0.916,  0.046 
425.900,  0.946,  0.047 
426.000,  0.817,  0.041 
426.100,  0.893,  0.045 
426.200,  0.882,  0.044 
426.300,  0.879,  0.044 
426.400,  0.984,  0.049 
426.500,  0.946,  0.047 
426.600,  0.987,  0.049 
426.700,  0.959,  0.048 
426.800,  0.934,  0.047 
426.900,  0.862,  0.043 
427.000,  0.963,  0.048 
427.100,  0.902,  0.045 
427.200,  0.764,  0.038 
427.300,  0.893,  0.045 
427.400,  0.920,  0.046 
427.500,  0.800,  0.040 
427.600,  0.969,  0.048 
427.700,  0.924,  0.046 
427.800,  0.921,  0.046 
427.900,  0.990,  0.049 
428.000,  0.941,  0.047 
428.100,  0.898,  0.045 
428.200,  0.895,  0.045 
428.300,  0.786,  0.039 
428.400,  0.907,  0.045 
428.500,  0.928,  0.046 
428.600,  0.902,  0.045 
428.700,  0.918,  0.046 
428.800,  0.874,  0.044 
428.900,  0.847,  0.042 
429.000,  0.608,  0.030 
429.100,  0.895,  0.045 
429.200,  0.920,  0.046 
429.300,  0.965,  0.048 
429.400,  0.863,  0.043 
429.500,  0.894,  0.045 
429.600,  0.875,  0.044 
429.700,  0.833,  0.042 
429.800,  0.948,  0.047 
429.900,  0.694,  0.035 
430.000,  0.796,  0.040 
430.100,  0.817,  0.041 
430.200,  0.772,  0.039 
430.300,  0.755,  0.038 
430.400,  0.946,  0.047 
430.500,  0.901,  0.045 
430.600,  0.799,  0.040 
430.700,  0.906,  0.045 
430.800,  0.659,  0.033 
430.900,  0.811,  0.041 
431.000,  0.820,  0.041 
431.100,  0.945,  0.047 
431.200,  0.873,  0.044 
431.300,  0.815,  0.041 
431.400,  0.811,  0.041 
431.500,  0.802,  0.040 
431.600,  0.878,  0.044 
431.700,  0.845,  0.042 
431.800,  0.913,  0.046 
431.900,  0.771,  0.039 
432.000,  0.852,  0.043 
432.100,  0.674,  0.034 
432.200,  0.851,  0.043 
432.300,  0.817,  0.041 
432.400,  0.837,  0.042 
432.500,  0.759,  0.038 
432.600,  0.653,  0.033 
432.700,  0.700,  0.035 
432.800,  0.801,  0.040 
432.900,  0.822,  0.041 
433.000,  0.750,  0.037 
433.100,  0.676,  0.034 
433.200,  0.704,  0.035 
433.300,  0.695,  0.035 
433.400,  0.714,  0.036 
433.500,  0.621,  0.031 
433.600,  0.648,  0.032 
433.700,  0.511,  0.026 
433.800,  0.480,  0.024 
433.900,  0.406,  0.020 
434.000,  0.259,  0.013 
434.100,  0.290,  0.014 
434.200,  0.436,  0.022 
434.300,  0.490,  0.024 
434.400,  0.565,  0.028 
434.500,  0.623,  0.031 
434.600,  0.700,  0.035 
434.700,  0.713,  0.036 
434.800,  0.699,  0.035 
434.900,  0.690,  0.034 
435.000,  0.782,  0.039 
435.100,  0.825,  0.041 
435.200,  0.652,  0.033 
435.300,  0.720,  0.036 
435.400,  0.778,  0.039 
435.500,  0.839,  0.042 
435.600,  0.800,  0.040 
435.700,  0.898,  0.045 
435.800,  0.893,  0.045 
435.900,  0.864,  0.043 
436.000,  0.845,  0.042 
436.100,  0.857,  0.043 
436.200,  0.872,  0.044 
436.300,  0.873,  0.044 
436.400,  0.941,  0.047 
436.500,  0.971,  0.049 
436.600,  0.901,  0.045 
436.700,  0.913,  0.046 
436.800,  0.856,  0.043 
436.900,  0.938,  0.047 
437.000,  0.886,  0.044 
437.100,  0.895,  0.045 
437.200,  0.938,  0.047 
437.300,  0.908,  0.045 
437.400,  0.817,  0.041 
437.500,  0.738,  0.037 
437.600,  0.886,  0.044 
437.700,  0.946,  0.047 
437.800,  0.962,  0.048 
437.900,  0.944,  0.047 
438.000,  0.963,  0.048 
438.100,  0.950,  0.047 
438.200,  1.004,  0.050 
438.300,  0.874,  0.044 
438.400,  0.799,  0.040 
438.500,  0.817,  0.041 
438.600,  0.977,  0.049 
438.700,  0.878,  0.044 
438.800,  0.854,  0.043 
438.900,  0.988,  0.049 
439.000,  0.887,  0.044 
439.100,  0.854,  0.043 
439.200,  0.940,  0.047 
439.300,  0.979,  0.049 
439.400,  0.918,  0.046 
439.500,  0.864,  0.043 
439.600,  0.877,  0.044 
439.700,  0.982,  0.049 
439.800,  0.887,  0.044 
439.900,  0.970,  0.049 
440.000,  0.847,  0.042 
440.100,  0.882,  0.044 
440.200,  0.957,  0.048 
440.300,  0.969,  0.048 
440.400,  1.018,  0.051 
440.500,  0.832,  0.042 
440.600,  0.977,  0.049 
440.700,  1.001,  0.050 
440.800,  0.909,  0.045 
440.900,  0.939,  0.047 
441.000,  0.907,  0.045 
441.100,  0.927,  0.046 
441.200,  0.933,  0.047 
441.300,  1.026,  0.051 
441.400,  0.944,  0.047 
441.500,  0.849,  0.042 
441.600,  0.959,  0.048 
441.700,  0.863,  0.043 
441.800,  0.796,  0.040 
441.900,  0.999,  0.050 
442.000,  1.006,  0.050 
442.100,  0.956,  0.048 
442.200,  0.858,  0.043 
442.300,  0.904,  0.045 
442.400,  0.915,  0.046 
442.500,  0.865,  0.043 
442.600,  0.924,  0.046 
442.700,  0.895,  0.045 
442.800,  0.931,  0.047 
442.900,  0.987,  0.049 
443.000,  0.872,  0.044 
443.100,  0.864,  0.043 
443.200,  0.934,  0.047 
443.300,  0.868,  0.043 
443.400,  0.892,  0.045 
443.500,  0.876,  0.044 
443.600,  0.883,  0.044 
443.700,  0.960,  0.048 
443.800,  0.944,  0.047 
443.900,  1.004,  0.050 
444.000,  0.931,  0.047 
444.100,  0.943,  0.047 
444.200,  0.823,  0.041 
444.300,  0.854,  0.043 
444.400,  0.840,  0.042 
444.500,  0.942,  0.047 
444.600,  0.979,  0.049 
444.700,  0.989,  0.049 
444.800,  0.905,  0.045 
444.900,  0.956,  0.048 
445.000,  0.875,  0.044 
445.100,  0.948,  0.047 
445.200,  0.950,  0.048 
445.300,  0.938,  0.047 
445.400,  0.925,  0.046 
445.500,  0.696,  0.035 
445.600,  0.917,  0.046 
445.700,  0.888,  0.044 
445.800,  0.893,  0.045 
445.900,  0.870,  0.043 
446.000,  0.974,  0.049 
446.100,  0.900,  0.045 
446.200,  0.784,  0.039 
446.300,  0.943,  0.047 
446.400,  0.914,  0.046 
446.500,  0.884,  0.044 
446.600,  0.967,  0.048 
446.700,  0.892,  0.045 
446.800,  0.900,  0.045 
446.900,  0.826,  0.041 
447.000,  1.001,  0.050 
447.100,  0.921,  0.046 
447.200,  0.926,  0.046 
447.300,  0.942,  0.047 
447.400,  0.910,  0.045 
447.500,  0.967,  0.048 
447.600,  0.877,  0.044 
447.700,  1.006,  0.050 
447.800,  0.974,  0.049 
447.900,  0.953,  0.048 
448.000,  0.907,  0.045 
448.100,  0.728,  0.036 
448.200,  0.797,  0.040 
448.300,  0.878,  0.044 
448.400,  0.933,  0.047 
448.500,  1.021,  0.051 
448.600,  0.883,  0.044 
448.700,  0.956,  0.048 
448.800,  0.896,  0.045 
448.900,  0.941,  0.047 
449.000,  0.899,  0.045 
449.100,  0.849,  0.042 
449.200,  1.002,  0.050 
449.300,  0.955,  0.048 
449.400,  0.924,  0.046 
449.500,  0.929,  0.046 
449.600,  0.888,  0.044 
449.700,  0.899,  0.045 
449.800,  0.964,  0.048 
449.900,  0.932,  0.047 
450.000,  0.901,  0.045 
450.100,  0.848,  0.042 
450.200,  0.964,  0.048 
450.300,  0.967,  0.048 
450.400,  0.981,  0.049 
450.500,  0.957,  0.048 
450.600,  0.999,  0.050 
450.700,  0.957,  0.048 
450.800,  0.829,  0.041 
450.900,  1.029,  0.051 
451.000,  0.996,  0.050 
451.100,  0.984,  0.049 
451.200,  0.964,  0.048 
451.300,  0.966,  0.048 
451.400,  0.963,  0.048 
451.500,  0.894,  0.045 
451.600,  1.025,  0.051 
451.700,  0.975,  0.049 
451.800,  0.873,  0.044 
451.900,  0.996,  0.050 
452.000,  0.940,  0.047 
452.100,  0.947,  0.047 
452.200,  0.956,  0.048 
452.300,  0.814,  0.041 
452.400,  0.962,  0.048 
452.500,  0.840,  0.042 
452.600,  0.963,  0.048 
452.700,  0.940,  0.047 
452.800,  0.933,  0.047 
452.900,  0.809,  0.040 
453.000,  0.979,  0.049 
453.100,  0.833,  0.042 
453.200,  0.969,  0.048 
453.300,  0.924,  0.046 
453.400,  0.856,  0.043 
453.500,  0.974,  0.049 
453.600,  0.899,  0.045 
453.700,  0.979,  0.049 
453.800,  1.002,  0.050 
453.900,  0.942,  0.047 
454.000,  0.990,  0.050 
454.100,  0.938,  0.047 
454.200,  0.889,  0.044 
454.300,  0.990,  0.049 
454.400,  0.961,  0.048 
454.500,  0.880,  0.044 
454.600,  0.851,  0.043 
454.700,  0.885,  0.044 
454.800,  0.910,  0.046 
454.900,  0.868,  0.043 
455.000,  0.778,  0.039 
455.100,  0.958,  0.048 
455.200,  0.938,  0.047 
455.300,  0.963,  0.048 
455.400,  0.872,  0.044 
455.500,  0.884,  0.044 
455.600,  0.790,  0.040 
455.700,  0.987,  0.049 
455.800,  0.954,  0.048 
455.900,  0.865,  0.043 
456.000,  0.977,  0.049 
456.100,  0.941,  0.047 
456.200,  0.947,  0.047 
456.300,  0.959,  0.048 
456.400,  0.897,  0.045 
456.500,  0.958,  0.048 
456.600,  0.951,  0.048 
456.700,  1.005,  0.050 
456.800,  0.918,  0.046 
456.900,  0.969,  0.048 
457.000,  0.971,  0.049 
457.100,  0.925,  0.046 
457.200,  0.875,  0.044 
457.300,  1.002,  0.050 
457.400,  0.996,  0.050 
457.500,  0.967,  0.048 
457.600,  0.936,  0.047 
457.700,  0.963,  0.048 
457.800,  0.991,  0.050 
457.900,  0.914,  0.046 
458.000,  0.894,  0.045 
458.100,  0.863,  0.043 
458.200,  0.942,  0.047 
458.300,  0.890,  0.045 
458.400,  0.780,  0.039 
458.500,  0.886,  0.044 
458.600,  0.839,  0.042 
458.700,  0.989,  0.049 
458.800,  0.893,  0.045 
458.900,  0.934,  0.047 
459.000,  0.887,  0.044 
459.100,  0.994,  0.050 
459.200,  0.906,  0.045 
459.300,  0.893,  0.045 
459.400,  0.947,  0.047 
459.500,  0.972,  0.049 
459.600,  0.922,  0.046 
459.700,  0.967,  0.048 
459.800,  0.970,  0.049 
